*RAS_DATA_START
*RAS_HEADER_START
*CORR_POS_DB_NAME "Correct"
*CORR_POS_GONIO_RADIUS ""
*CORR_POS_NODE_INDEX01 ""
*CORR_POS_NODE_INDEX02 ""
*CORR_POS_NODE_INDEX03 ""
*CORR_POS_NODE_INDEX04 ""
*CORR_POS_NODE_INDEX05 ""
*CORR_POS_NODE_INDEX06 ""
*CORR_POS_NODE_INDEX07 ""
*CORR_POS_NODE_INDEX08 ""
*CORR_POS_NODE_INDEX09 ""
*CORR_POS_NODE_INDEX10 ""
*CORR_POS_NODE_INDEX11 ""
*CORR_POS_NODE_LABEL01 "Si(111)"
*CORR_POS_NODE_LABEL02 "Si(220)"
*CORR_POS_NODE_LABEL03 "Si(311)"
*CORR_POS_NODE_LABEL04 "Si(400)"
*CORR_POS_NODE_LABEL05 "Si(331)"
*CORR_POS_NODE_LABEL06 "Si(422)"
*CORR_POS_NODE_LABEL07 "Si(511)"
*CORR_POS_NODE_LABEL08 "Si(440)"
*CORR_POS_NODE_LABEL09 "Si(531)"
*CORR_POS_NODE_LABEL10 "Si(620)"
*CORR_POS_NODE_LABEL11 "Si(533)"
*CORR_POS_NODE_POS_CALC01 "28.377"
*CORR_POS_NODE_POS_CALC02 "47.2506"
*CORR_POS_NODE_POS_CALC03 "56.0725"
*CORR_POS_NODE_POS_CALC04 "69.0822"
*CORR_POS_NODE_POS_CALC05 "76.3294"
*CORR_POS_NODE_POS_CALC06 "87.9853"
*CORR_POS_NODE_POS_CALC07 "94.9091"
*CORR_POS_NODE_POS_CALC08 "106.668"
*CORR_POS_NODE_POS_CALC09 "114.054"
*CORR_POS_NODE_POS_CALC10 "127.511"
*CORR_POS_NODE_POS_CALC11 "136.864"
*CORR_POS_NODE_POS_MEAS01 "28.3748"
*CORR_POS_NODE_POS_MEAS02 "47.2433"
*CORR_POS_NODE_POS_MEAS03 "56.0578"
*CORR_POS_NODE_POS_MEAS04 "69.0704"
*CORR_POS_NODE_POS_MEAS05 "76.3153"
*CORR_POS_NODE_POS_MEAS06 "87.9774"
*CORR_POS_NODE_POS_MEAS07 "94.9047"
*CORR_POS_NODE_POS_MEAS08 "106.671"
*CORR_POS_NODE_POS_MEAS09 "114.058"
*CORR_POS_NODE_POS_MEAS10 "127.513"
*CORR_POS_NODE_POS_MEAS11 "136.874"
*CORR_POS_OPT_ATTR "�W���@"
*CORR_POS_PARAM_MU ""
*CORR_POS_PARAM_PL ""
*CORR_POS_SEMODEL_TYPE "0"
*CORR_POS_STANDARD_TYPE ""
*CORR_POS_VALUE_ANALYZER "None"
*CORR_POS_VALUE_CMONO "None"
*CORR_POS_VALUE_IMONO "None"
*CORR_POS_VALUE_IS "1.250deg"
*CORR_POS_VALUE_ISL "10.0mm"
*CORR_POS_VALUE_ISOLLER "5.0deg"
*CORR_POS_VALUE_RS1 "1.250deg"
*CORR_POS_VALUE_RS2 "0.3mm"
*CORR_POS_VALUE_RSOLLER "5.0deg"
*CORR_POS_XG_FOCUS_L ""
*CORR_POS_XG_WAVE_TYPE ""
*CORR_POS_XG_WAVE_VALUE ""
*DISP_FMT_X "%.2f"
*DISP_FMT_Y "%.0f"
*DISP_FULLSCALE "665.0000000000"
*DISP_LINE_COLOR "255.0000000000"
*DISP_LINE_STYLE "0.0000000000"
*DISP_LINE_WIDTH "0.2500000000"
*DISP_NOTE "Collected Data-56"
*DISP_OFFSET_Y "0.0000000000"
*DISP_PEAKSEARCH_UNIT_Y "cps"
*DISP_RANGE_BOTTOM "0.0000000000"
*DISP_RANGE_LEFT "15.0000000000"
*DISP_RANGE_LOGCUTOFF "0.0100000000"
*DISP_RANGE_RIGHT "50.0000000000"
*DISP_RANGE_TOP "665.0000000000"
*DISP_SCALE_MODE_Y "0.0000000000"
*DISP_TAB_NAME "Theta/2-Theta"
*DISP_TITLE_Y "Intensity"
*DISP_UNIT_Y "cps"
*DISP_WINDOW_NAME "MSG_MACROENGINE"
*FILE_COMMENT " "
*FILE_MD5 ""
*FILE_MEMO " "
*FILE_OPERATOR "Administrator"
*FILE_SAMPLE "Ferrite XRD"
*FILE_TYPE "RAS_RAW"
*FILE_USERGROUP "System Manager"
*FILE_VERSION "1.0000000000"
*HW_ATTACHMENT_ID "ATT1025"
*HW_ATTACHMENT_NAME "�W��������|Standard Sample Holder"
*HW_COUNTER_ID-0 "CUT0021"
*HW_COUNTER_ID-1 "CUT0020"
*HW_COUNTER_ID-2 "CUT0020"
*HW_COUNTER_ID-3 "CMC0021"
*HW_COUNTER_NAME-0 "SC-70|SC-70"
*HW_COUNTER_NAME-1 "None|None"
*HW_COUNTER_NAME-2 "None|None"
*HW_COUNTER_NAME-3 "���o�탂�m�N�����[�^|Detector monochromator"
*HW_COUNTER_SELECT_NAME "SC-70|SC-70"
*HW_ECP_HV "655.5000000000"
*HW_ECP_HV_UNIT "V"
*HW_GONIOMETER_ID "GON0070"
*HW_GONIOMETER_NAME "MiniFlex 300/600|MiniFlex 300/600"
*HW_GONIOMETER_RADIUS-0 "79.0"
*HW_GONIOMETER_RADIUS-1 "91.5"
*HW_GONIOMETER_RADIUS-2 "150.0"
*HW_GONIOMETER_RADIUS-3 "0"
*HW_GONIOMETER_RADIUS-4 "103.4"
*HW_GONIOMETER_RADIUS-5 "150.0"
*HW_GONIOMETER_RADIUS-6 "46.6"
*HW_GONIOMETER_RADIUS-7 "160.0"
*HW_I_OPT_ID-0 "ISL0021"
*HW_I_OPT_ID-1 "ISO0021"
*HW_I_OPT_NAME-0 "���U�X���b�g|Divergence slit"
*HW_I_OPT_NAME-1 "���˕��s�X���b�g|Incident parallel slit"
*HW_R_ATTENUATER_AUTOMODE "0"
*HW_R_OPT_ID-0 "RSS0021"
*HW_R_OPT_ID-1 "RSO0021"
*HW_R_OPT_ID-2 "RRS0021"
*HW_R_OPT_NAME-0 "�U���X���b�g|Scattering slit"
*HW_R_OPT_NAME-1 "������s�X���b�g|Receiving soller slit"
*HW_R_OPT_NAME-2 "����X���b�g|Receiving slit"
*HW_SAMPLE_HOLDER_ID "SMP0000"
*HW_SAMPLE_HOLDER_NAME "����|None"
*HW_XG_CURRENT_MAX "15"
*HW_XG_CURRENT_MIN "2"
*HW_XG_CURRENT_RESOLUTION "1"
*HW_XG_CURRENT_UNIT "mA"
*HW_XG_FOCUS "1mm x 10mm"
*HW_XG_FOCUS_TYPE "Normal"
*HW_XG_ID ""
*HW_XG_NAME "300W/600W ������-B|300W/600W Sealed tube-B"
*HW_XG_TARGET_ATOMIC_NUMBER "29.0000000000"
*HW_XG_TARGET_NAME "Cu"
*HW_XG_TYPE "Hermetic"
*HW_XG_VOLTAGE_MAX "40"
*HW_XG_VOLTAGE_MIN "20"
*HW_XG_VOLTAGE_RESOLUTION "1"
*HW_XG_VOLTAGE_UNIT "kV"
*HW_XG_WATT_MAX "1"
*HW_XG_WATT_UNIT "kW"
*HW_XG_WAVE_LENGTH_ALPHA1 "1.540593"
*HW_XG_WAVE_LENGTH_ALPHA2 "1.544414"
*HW_XG_WAVE_LENGTH_BETA "1.392250"
*MEAS_COND_AXIS_NAME-0 "Theta/2-Theta"
*MEAS_COND_AXIS_NAME-1 "Soller(inc.)"
*MEAS_COND_AXIS_NAME-2 "IHS"
*MEAS_COND_AXIS_NAME-3 "DS"
*MEAS_COND_AXIS_NAME-4 "SS"
*MEAS_COND_AXIS_NAME-5 "Soller(rec.)"
*MEAS_COND_AXIS_NAME-6 "RS"
*MEAS_COND_AXIS_NAME-7 "Filter"
*MEAS_COND_AXIS_NAME-8 "Monochromator"
*MEAS_COND_AXIS_NAME-9 "HV"
*MEAS_COND_AXIS_NAME-10 "PHA"
*MEAS_COND_AXIS_NAME_INTERNAL-0 "TwoThetaTheta"
*MEAS_COND_AXIS_NAME_INTERNAL-1 "IncidentSollerSlit"
*MEAS_COND_AXIS_NAME_INTERNAL-2 "IncidentAxdSlit"
*MEAS_COND_AXIS_NAME_INTERNAL-3 "IncidentSlitBox"
*MEAS_COND_AXIS_NAME_INTERNAL-4 "ReceivingSlitBox1"
*MEAS_COND_AXIS_NAME_INTERNAL-5 "ReceivingSollerSlit"
*MEAS_COND_AXIS_NAME_INTERNAL-6 "ReceivingSlitBox2"
*MEAS_COND_AXIS_NAME_INTERNAL-7 "Filter"
*MEAS_COND_AXIS_NAME_INTERNAL-8 "CounterMonochromator"
*MEAS_COND_AXIS_NAME_INTERNAL-9 "HV"
*MEAS_COND_AXIS_NAME_INTERNAL-10 "PHA"
*MEAS_COND_AXIS_NAME_MAGICNO-0 "268632064.0000000000"
*MEAS_COND_AXIS_NAME_MAGICNO-1 "20971521.0000000000"
*MEAS_COND_AXIS_NAME_MAGICNO-2 "22020097.0000000000"
*MEAS_COND_AXIS_NAME_MAGICNO-3 "22020097.0000000000"
*MEAS_COND_AXIS_NAME_MAGICNO-4 "23068673.0000000000"
*MEAS_COND_AXIS_NAME_MAGICNO-5 "20971521.0000000000"
*MEAS_COND_AXIS_NAME_MAGICNO-6 "23068673.0000000000"
*MEAS_COND_AXIS_NAME_MAGICNO-7 "20971521.0000000000"
*MEAS_COND_AXIS_NAME_MAGICNO-8 "20971521.0000000000"
*MEAS_COND_AXIS_NAME_MAGICNO-9 "0.0000000000"
*MEAS_COND_AXIS_NAME_MAGICNO-10 "0.0000000000"
*MEAS_COND_AXIS_OFFSET-0 "0.0000000000"
*MEAS_COND_AXIS_OFFSET-1 "-"
*MEAS_COND_AXIS_OFFSET-2 "-"
*MEAS_COND_AXIS_OFFSET-3 "-"
*MEAS_COND_AXIS_OFFSET-4 "-"
*MEAS_COND_AXIS_OFFSET-5 "-"
*MEAS_COND_AXIS_OFFSET-6 "-"
*MEAS_COND_AXIS_OFFSET-7 "-"
*MEAS_COND_AXIS_OFFSET-8 "-"
*MEAS_COND_AXIS_OFFSET-9 "-"
*MEAS_COND_AXIS_OFFSET-10 "-"
*MEAS_COND_AXIS_POSITION-0 "10.0000000000"
*MEAS_COND_AXIS_POSITION-1 "5.0deg"
*MEAS_COND_AXIS_POSITION-2 "10.0mm"
*MEAS_COND_AXIS_POSITION-3 "1.250deg"
*MEAS_COND_AXIS_POSITION-4 "1.250deg"
*MEAS_COND_AXIS_POSITION-5 "5.0deg"
*MEAS_COND_AXIS_POSITION-6 "0.3mm"
*MEAS_COND_AXIS_POSITION-7 "None"
*MEAS_COND_AXIS_POSITION-8 "Bent"
*MEAS_COND_AXIS_POSITION-9 "655.5000000000"
*MEAS_COND_AXIS_POSITION-10 "555.0000000000"
*MEAS_COND_AXIS_UNIT-0 "deg"
*MEAS_COND_AXIS_UNIT-1 ""
*MEAS_COND_AXIS_UNIT-2 ""
*MEAS_COND_AXIS_UNIT-3 ""
*MEAS_COND_AXIS_UNIT-4 ""
*MEAS_COND_AXIS_UNIT-5 ""
*MEAS_COND_AXIS_UNIT-6 ""
*MEAS_COND_AXIS_UNIT-7 ""
*MEAS_COND_AXIS_UNIT-8 ""
*MEAS_COND_AXIS_UNIT-9 "V"
*MEAS_COND_AXIS_UNIT-10 "mV"
*MEAS_COND_CORRECTION_SLIT_COUNTERMONO "None"
*MEAS_COND_CORRECTION_SLIT_DS "1.250deg"
*MEAS_COND_CORRECTION_SLIT_FILTER "None"
*MEAS_COND_CORRECTION_SLIT_IHS "10.0mm"
*MEAS_COND_CORRECTION_SLIT_RS "0.3mm"
*MEAS_COND_CORRECTION_SLIT_SOLLER_INC "5.0deg"
*MEAS_COND_CORRECTION_SLIT_SOLLER_REC "5.0deg"
*MEAS_COND_CORRECTION_SLIT_SS "1.250deg"
*MEAS_COND_COUNTER_CNTLOSS_CORR "0.0000000000"
*MEAS_COND_COUNTER_PHABASE "555.0000000000"
*MEAS_COND_COUNTER_PHAWINDOW "925.0000000000"
*MEAS_COND_COUNTER_PHA_UNIT "mV"
*MEAS_COND_COUNTER_TAUDIFF "0.2500000000"
*MEAS_COND_COUNTER_TAUINT "0.7500000000"
*MEAS_COND_IRRADIATION_MODE "OFF"
*MEAS_COND_IRRADIATION_WIDTH ""
*MEAS_COND_OPT_ATTR " "
*MEAS_COND_OPT_NAME ""
*MEAS_COND_UNSYMMETRIC_MODE "OFF"
*MEAS_COND_XG_CURRENT "15.0000000000"
*MEAS_COND_XG_VOLTAGE "40.0000000000"
*MEAS_COND_XG_WAVE_TYPE "Ka"
*MEAS_DATA_COUNT "1751.0000000000"
*MEAS_SCAN_AXIS_X "Theta/2-Theta"
*MEAS_SCAN_AXIS_X_INTERNAL "TwoThetaTheta"
*MEAS_SCAN_END_TIME "09/22/15 13:12:58"
*MEAS_SCAN_MODE "CONTINUOUS"
*MEAS_SCAN_MONITOR "0"
*MEAS_SCAN_RESOLUTION_X "0.0025"
*MEAS_SCAN_SPEED "2.5000"
*MEAS_SCAN_SPEED_UNIT "deg/min"
*MEAS_SCAN_START "15.0000000000"
*MEAS_SCAN_START_TIME "09/22/15 12:58:51"
*MEAS_SCAN_STEP "0.0200000000"
*MEAS_SCAN_STOP "50.0000000000"
*MEAS_SCAN_UNIT_X "deg"
*MEAS_SCAN_UNIT_Y "counts"
*SLIT_SYSTEM "0"
*RAS_HEADER_END
*RAS_INT_START
15.0000 22.0000 1.0000
15.0200 30.0000 1.0000
15.0400 24.0000 1.0000
15.0600 25.0000 1.0000
15.0800 26.0000 1.0000
15.1000 27.0000 1.0000
15.1200 26.0000 1.0000
15.1400 25.0000 1.0000
15.1600 30.0000 1.0000
15.1800 26.0000 1.0000
15.2000 21.0000 1.0000
15.2200 32.0000 1.0000
15.2400 20.0000 1.0000
15.2600 25.0000 1.0000
15.2800 25.0000 1.0000
15.3000 38.0000 1.0000
15.3200 31.0000 1.0000
15.3400 24.0000 1.0000
15.3600 23.0000 1.0000
15.3800 23.0000 1.0000
15.4000 32.0000 1.0000
15.4200 26.0000 1.0000
15.4400 23.0000 1.0000
15.4600 22.0000 1.0000
15.4800 25.0000 1.0000
15.5000 30.0000 1.0000
15.5200 16.0000 1.0000
15.5400 25.0000 1.0000
15.5600 20.0000 1.0000
15.5800 28.0000 1.0000
15.6000 25.0000 1.0000
15.6200 22.0000 1.0000
15.6400 18.0000 1.0000
15.6600 26.0000 1.0000
15.6800 29.0000 1.0000
15.7000 23.0000 1.0000
15.7200 27.0000 1.0000
15.7400 21.0000 1.0000
15.7600 33.0000 1.0000
15.7800 26.0000 1.0000
15.8000 28.0000 1.0000
15.8200 26.0000 1.0000
15.8400 14.0000 1.0000
15.8600 25.0000 1.0000
15.8800 24.0000 1.0000
15.9000 24.0000 1.0000
15.9200 18.0000 1.0000
15.9400 22.0000 1.0000
15.9600 19.0000 1.0000
15.9800 30.0000 1.0000
16.0000 21.0000 1.0000
16.0200 16.0000 1.0000
16.0400 19.0000 1.0000
16.0600 22.0000 1.0000
16.0800 33.0000 1.0000
16.1000 17.0000 1.0000
16.1200 15.0000 1.0000
16.1400 20.0000 1.0000
16.1600 22.0000 1.0000
16.1800 28.0000 1.0000
16.2000 21.0000 1.0000
16.2200 27.0000 1.0000
16.2400 17.0000 1.0000
16.2600 22.0000 1.0000
16.2800 21.0000 1.0000
16.3000 21.0000 1.0000
16.3200 29.0000 1.0000
16.3400 16.0000 1.0000
16.3600 21.0000 1.0000
16.3800 24.0000 1.0000
16.4000 15.0000 1.0000
16.4200 29.0000 1.0000
16.4400 15.0000 1.0000
16.4600 18.0000 1.0000
16.4800 17.0000 1.0000
16.5000 26.0000 1.0000
16.5200 15.0000 1.0000
16.5400 25.0000 1.0000
16.5600 21.0000 1.0000
16.5800 25.0000 1.0000
16.6000 23.0000 1.0000
16.6200 23.0000 1.0000
16.6400 24.0000 1.0000
16.6600 25.0000 1.0000
16.6800 20.0000 1.0000
16.7000 16.0000 1.0000
16.7200 24.0000 1.0000
16.7400 21.0000 1.0000
16.7600 29.0000 1.0000
16.7800 29.0000 1.0000
16.8000 23.0000 1.0000
16.8200 30.0000 1.0000
16.8400 20.0000 1.0000
16.8600 27.0000 1.0000
16.8800 27.0000 1.0000
16.9000 28.0000 1.0000
16.9200 28.0000 1.0000
16.9400 24.0000 1.0000
16.9600 22.0000 1.0000
16.9800 15.0000 1.0000
17.0000 23.0000 1.0000
17.0200 23.0000 1.0000
17.0400 23.0000 1.0000
17.0600 15.0000 1.0000
17.0800 25.0000 1.0000
17.1000 22.0000 1.0000
17.1200 20.0000 1.0000
17.1400 10.0000 1.0000
17.1600 23.0000 1.0000
17.1800 31.0000 1.0000
17.2000 21.0000 1.0000
17.2200 22.0000 1.0000
17.2400 21.0000 1.0000
17.2600 25.0000 1.0000
17.2800 20.0000 1.0000
17.3000 15.0000 1.0000
17.3200 25.0000 1.0000
17.3400 25.0000 1.0000
17.3600 25.0000 1.0000
17.3800 26.0000 1.0000
17.4000 22.0000 1.0000
17.4200 14.0000 1.0000
17.4400 20.0000 1.0000
17.4600 16.0000 1.0000
17.4800 20.0000 1.0000
17.5000 26.0000 1.0000
17.5200 27.0000 1.0000
17.5400 27.0000 1.0000
17.5600 29.0000 1.0000
17.5800 22.0000 1.0000
17.6000 30.0000 1.0000
17.6200 30.0000 1.0000
17.6400 23.0000 1.0000
17.6600 29.0000 1.0000
17.6800 38.0000 1.0000
17.7000 27.0000 1.0000
17.7200 35.0000 1.0000
17.7400 27.0000 1.0000
17.7600 19.0000 1.0000
17.7800 19.0000 1.0000
17.8000 22.0000 1.0000
17.8200 21.0000 1.0000
17.8400 23.0000 1.0000
17.8600 17.0000 1.0000
17.8800 37.0000 1.0000
17.9000 19.0000 1.0000
17.9200 17.0000 1.0000
17.9400 22.0000 1.0000
17.9600 15.0000 1.0000
17.9800 18.0000 1.0000
18.0000 27.0000 1.0000
18.0200 17.0000 1.0000
18.0400 29.0000 1.0000
18.0600 27.0000 1.0000
18.0800 18.0000 1.0000
18.1000 17.0000 1.0000
18.1200 14.0000 1.0000
18.1400 19.0000 1.0000
18.1600 16.0000 1.0000
18.1800 7.0000 1.0000
18.2000 24.0000 1.0000
18.2200 20.0000 1.0000
18.2400 18.0000 1.0000
18.2600 18.0000 1.0000
18.2800 20.0000 1.0000
18.3000 15.0000 1.0000
18.3200 18.0000 1.0000
18.3400 27.0000 1.0000
18.3600 16.0000 1.0000
18.3800 17.0000 1.0000
18.4000 20.0000 1.0000
18.4200 21.0000 1.0000
18.4400 22.0000 1.0000
18.4600 16.0000 1.0000
18.4800 17.0000 1.0000
18.5000 19.0000 1.0000
18.5200 25.0000 1.0000
18.5400 22.0000 1.0000
18.5600 21.0000 1.0000
18.5800 19.0000 1.0000
18.6000 16.0000 1.0000
18.6200 23.0000 1.0000
18.6400 24.0000 1.0000
18.6600 20.0000 1.0000
18.6800 26.0000 1.0000
18.7000 29.0000 1.0000
18.7200 30.0000 1.0000
18.7400 34.0000 1.0000
18.7600 34.0000 1.0000
18.7800 36.0000 1.0000
18.8000 54.0000 1.0000
18.8200 44.0000 1.0000
18.8400 34.0000 1.0000
18.8600 37.0000 1.0000
18.8800 36.0000 1.0000
18.9000 34.0000 1.0000
18.9200 38.0000 1.0000
18.9400 24.0000 1.0000
18.9600 26.0000 1.0000
18.9800 23.0000 1.0000
19.0000 18.0000 1.0000
19.0200 24.0000 1.0000
19.0400 23.0000 1.0000
19.0600 21.0000 1.0000
19.0800 19.0000 1.0000
19.1000 16.0000 1.0000
19.1200 22.0000 1.0000
19.1400 14.0000 1.0000
19.1600 12.0000 1.0000
19.1800 12.0000 1.0000
19.2000 12.0000 1.0000
19.2200 17.0000 1.0000
19.2400 22.0000 1.0000
19.2600 12.0000 1.0000
19.2800 11.0000 1.0000
19.3000 14.0000 1.0000
19.3200 10.0000 1.0000
19.3400 15.0000 1.0000
19.3600 25.0000 1.0000
19.3800 17.0000 1.0000
19.4000 15.0000 1.0000
19.4200 17.0000 1.0000
19.4400 12.0000 1.0000
19.4600 16.0000 1.0000
19.4800 19.0000 1.0000
19.5000 16.0000 1.0000
19.5200 16.0000 1.0000
19.5400 19.0000 1.0000
19.5600 14.0000 1.0000
19.5800 17.0000 1.0000
19.6000 13.0000 1.0000
19.6200 12.0000 1.0000
19.6400 15.0000 1.0000
19.6600 20.0000 1.0000
19.6800 20.0000 1.0000
19.7000 20.0000 1.0000
19.7200 14.0000 1.0000
19.7400 9.0000 1.0000
19.7600 17.0000 1.0000
19.7800 15.0000 1.0000
19.8000 20.0000 1.0000
19.8200 15.0000 1.0000
19.8400 10.0000 1.0000
19.8600 20.0000 1.0000
19.8800 16.0000 1.0000
19.9000 16.0000 1.0000
19.9200 16.0000 1.0000
19.9400 13.0000 1.0000
19.9600 10.0000 1.0000
19.9800 15.0000 1.0000
20.0000 14.0000 1.0000
20.0200 12.0000 1.0000
20.0400 14.0000 1.0000
20.0600 11.0000 1.0000
20.0800 19.0000 1.0000
20.1000 12.0000 1.0000
20.1200 15.0000 1.0000
20.1400 14.0000 1.0000
20.1600 12.0000 1.0000
20.1800 14.0000 1.0000
20.2000 21.0000 1.0000
20.2200 19.0000 1.0000
20.2400 13.0000 1.0000
20.2600 12.0000 1.0000
20.2800 16.0000 1.0000
20.3000 14.0000 1.0000
20.3200 10.0000 1.0000
20.3400 8.0000 1.0000
20.3600 10.0000 1.0000
20.3800 15.0000 1.0000
20.4000 14.0000 1.0000
20.4200 13.0000 1.0000
20.4400 13.0000 1.0000
20.4600 10.0000 1.0000
20.4800 9.0000 1.0000
20.5000 18.0000 1.0000
20.5200 13.0000 1.0000
20.5400 14.0000 1.0000
20.5600 17.0000 1.0000
20.5800 16.0000 1.0000
20.6000 13.0000 1.0000
20.6200 11.0000 1.0000
20.6400 9.0000 1.0000
20.6600 15.0000 1.0000
20.6800 17.0000 1.0000
20.7000 13.0000 1.0000
20.7200 8.0000 1.0000
20.7400 16.0000 1.0000
20.7600 15.0000 1.0000
20.7800 12.0000 1.0000
20.8000 11.0000 1.0000
20.8200 9.0000 1.0000
20.8400 10.0000 1.0000
20.8600 17.0000 1.0000
20.8800 22.0000 1.0000
20.9000 15.0000 1.0000
20.9200 14.0000 1.0000
20.9400 12.0000 1.0000
20.9600 10.0000 1.0000
20.9800 14.0000 1.0000
21.0000 9.0000 1.0000
21.0200 15.0000 1.0000
21.0400 9.0000 1.0000
21.0600 17.0000 1.0000
21.0800 9.0000 1.0000
21.1000 12.0000 1.0000
21.1200 16.0000 1.0000
21.1400 9.0000 1.0000
21.1600 10.0000 1.0000
21.1800 13.0000 1.0000
21.2000 12.0000 1.0000
21.2200 14.0000 1.0000
21.2400 9.0000 1.0000
21.2600 12.0000 1.0000
21.2800 10.0000 1.0000
21.3000 13.0000 1.0000
21.3200 14.0000 1.0000
21.3400 10.0000 1.0000
21.3600 9.0000 1.0000
21.3800 14.0000 1.0000
21.4000 11.0000 1.0000
21.4200 13.0000 1.0000
21.4400 13.0000 1.0000
21.4600 13.0000 1.0000
21.4800 16.0000 1.0000
21.5000 18.0000 1.0000
21.5200 14.0000 1.0000
21.5400 15.0000 1.0000
21.5600 11.0000 1.0000
21.5800 15.0000 1.0000
21.6000 11.0000 1.0000
21.6200 9.0000 1.0000
21.6400 12.0000 1.0000
21.6600 13.0000 1.0000
21.6800 13.0000 1.0000
21.7000 11.0000 1.0000
21.7200 13.0000 1.0000
21.7400 12.0000 1.0000
21.7600 13.0000 1.0000
21.7800 9.0000 1.0000
21.8000 9.0000 1.0000
21.8200 10.0000 1.0000
21.8400 8.0000 1.0000
21.8600 16.0000 1.0000
21.8800 15.0000 1.0000
21.9000 11.0000 1.0000
21.9200 12.0000 1.0000
21.9400 10.0000 1.0000
21.9600 13.0000 1.0000
21.9800 6.0000 1.0000
22.0000 9.0000 1.0000
22.0200 12.0000 1.0000
22.0400 7.0000 1.0000
22.0600 11.0000 1.0000
22.0800 11.0000 1.0000
22.1000 11.0000 1.0000
22.1200 12.0000 1.0000
22.1400 12.0000 1.0000
22.1600 15.0000 1.0000
22.1800 13.0000 1.0000
22.2000 11.0000 1.0000
22.2200 8.0000 1.0000
22.2400 7.0000 1.0000
22.2600 16.0000 1.0000
22.2800 13.0000 1.0000
22.3000 9.0000 1.0000
22.3200 13.0000 1.0000
22.3400 12.0000 1.0000
22.3600 8.0000 1.0000
22.3800 12.0000 1.0000
22.4000 15.0000 1.0000
22.4200 15.0000 1.0000
22.4400 16.0000 1.0000
22.4600 12.0000 1.0000
22.4800 10.0000 1.0000
22.5000 15.0000 1.0000
22.5200 14.0000 1.0000
22.5400 7.0000 1.0000
22.5600 21.0000 1.0000
22.5800 11.0000 1.0000
22.6000 8.0000 1.0000
22.6200 13.0000 1.0000
22.6400 9.0000 1.0000
22.6600 12.0000 1.0000
22.6800 24.0000 1.0000
22.7000 16.0000 1.0000
22.7200 21.0000 1.0000
22.7400 22.0000 1.0000
22.7600 23.0000 1.0000
22.7800 28.0000 1.0000
22.8000 28.0000 1.0000
22.8200 32.0000 1.0000
22.8400 35.0000 1.0000
22.8600 33.0000 1.0000
22.8800 22.0000 1.0000
22.9000 33.0000 1.0000
22.9200 34.0000 1.0000
22.9400 29.0000 1.0000
22.9600 16.0000 1.0000
22.9800 16.0000 1.0000
23.0000 17.0000 1.0000
23.0200 16.0000 1.0000
23.0400 20.0000 1.0000
23.0600 17.0000 1.0000
23.0800 14.0000 1.0000
23.1000 12.0000 1.0000
23.1200 10.0000 1.0000
23.1400 17.0000 1.0000
23.1600 18.0000 1.0000
23.1800 12.0000 1.0000
23.2000 12.0000 1.0000
23.2200 6.0000 1.0000
23.2400 9.0000 1.0000
23.2600 13.0000 1.0000
23.2800 11.0000 1.0000
23.3000 10.0000 1.0000
23.3200 14.0000 1.0000
23.3400 14.0000 1.0000
23.3600 10.0000 1.0000
23.3800 17.0000 1.0000
23.4000 11.0000 1.0000
23.4200 10.0000 1.0000
23.4400 16.0000 1.0000
23.4600 7.0000 1.0000
23.4800 10.0000 1.0000
23.5000 10.0000 1.0000
23.5200 11.0000 1.0000
23.5400 9.0000 1.0000
23.5600 12.0000 1.0000
23.5800 8.0000 1.0000
23.6000 5.0000 1.0000
23.6200 9.0000 1.0000
23.6400 7.0000 1.0000
23.6600 10.0000 1.0000
23.6800 10.0000 1.0000
23.7000 9.0000 1.0000
23.7200 7.0000 1.0000
23.7400 7.0000 1.0000
23.7600 12.0000 1.0000
23.7800 17.0000 1.0000
23.8000 10.0000 1.0000
23.8200 9.0000 1.0000
23.8400 12.0000 1.0000
23.8600 8.0000 1.0000
23.8800 4.0000 1.0000
23.9000 9.0000 1.0000
23.9200 10.0000 1.0000
23.9400 11.0000 1.0000
23.9600 7.0000 1.0000
23.9800 15.0000 1.0000
24.0000 5.0000 1.0000
24.0200 7.0000 1.0000
24.0400 6.0000 1.0000
24.0600 10.0000 1.0000
24.0800 13.0000 1.0000
24.1000 10.0000 1.0000
24.1200 6.0000 1.0000
24.1400 9.0000 1.0000
24.1600 8.0000 1.0000
24.1800 12.0000 1.0000
24.2000 8.0000 1.0000
24.2200 11.0000 1.0000
24.2400 7.0000 1.0000
24.2600 10.0000 1.0000
24.2800 3.0000 1.0000
24.3000 10.0000 1.0000
24.3200 9.0000 1.0000
24.3400 8.0000 1.0000
24.3600 14.0000 1.0000
24.3800 11.0000 1.0000
24.4000 7.0000 1.0000
24.4200 7.0000 1.0000
24.4400 7.0000 1.0000
24.4600 8.0000 1.0000
24.4800 6.0000 1.0000
24.5000 10.0000 1.0000
24.5200 7.0000 1.0000
24.5400 13.0000 1.0000
24.5600 12.0000 1.0000
24.5800 7.0000 1.0000
24.6000 10.0000 1.0000
24.6200 9.0000 1.0000
24.6400 7.0000 1.0000
24.6600 6.0000 1.0000
24.6800 10.0000 1.0000
24.7000 8.0000 1.0000
24.7200 10.0000 1.0000
24.7400 14.0000 1.0000
24.7600 10.0000 1.0000
24.7800 8.0000 1.0000
24.8000 9.0000 1.0000
24.8200 9.0000 1.0000
24.8400 12.0000 1.0000
24.8600 10.0000 1.0000
24.8800 7.0000 1.0000
24.9000 9.0000 1.0000
24.9200 8.0000 1.0000
24.9400 10.0000 1.0000
24.9600 10.0000 1.0000
24.9800 8.0000 1.0000
25.0000 6.0000 1.0000
25.0200 5.0000 1.0000
25.0400 4.0000 1.0000
25.0600 4.0000 1.0000
